Sample File	C:\TSI\Aerosol Instrument Manager\Sodium Chloride_low flow.S80
Classifier Model	3080
DMA Model	3081
DMA Inner Radius(cm)	0.00937
DMA Outer Radius(cm)	0.01961
DMA Characteristic Length(cm)	0.44369
CPC Model	3776 Low Flow
Reference Gas Viscosity (Pa*s)	1.8203e-005
Reference Mean Free Path (m)	6.65e-008
Reference Gas Temperature (K)	293.15
Reference Gas Pressure (kPa)	101.3
Channels/Decade	64
Multiple Charge Correction	FALSE
Nanoparticle Aggregate Mobility Analysis	FALSE
Diffusion Correction	FALSE
Units	dw/dlogDp
Weight	Number
Sample #	1
Date	08/11/05
Start Time	15:04:41
Diameter Midpoint
 15.1	0
 15.7	0
 16.3	0
 16.8	0
 17.5	0
 18.1	0
 18.8	0
 19.5	0
 20.2	0
 20.9	507.205
 21.7	490.521
 22.5	0
 23.3	0
 24.1	1773.43
 25.0	2583.3
 25.9	2092.3
 26.9	7787.82
 27.9	9523.53
 28.9	19246.1
 30.0	25544.9
 31.1	45699.5
 32.2	61755.6
 33.4	81944
 34.6	121849
 35.9	142147
 37.2	204736
 38.5	273675
 40.0	385910
 41.4	478067
 42.9	635232
 44.5	789552
 46.1	980579
 47.8	1.21827e+006
 49.6	1.4902e+006
 51.4	1.83761e+006
 53.3	2.28579e+006
 55.2	2.73716e+006
 57.3	3.31744e+006
 59.4	3.90737e+006
 61.5	4.5372e+006
 63.8	5.37681e+006
 66.1	6.16951e+006
 68.5	7.1389e+006
 71.0	8.19752e+006
 73.7	9.38316e+006
 76.4	1.05875e+007
 79.1	1.16887e+007
 82.0	1.27184e+007
 85.1	1.37715e+007
 88.2	1.48708e+007
 91.4	1.57721e+007
 94.7	1.6544e+007
 98.2	1.72618e+007
101.8	1.77675e+007
105.5	1.81091e+007
109.4	1.82921e+007
113.4	1.86507e+007
117.6	1.87168e+007
121.9	1.86752e+007
126.3	1.88347e+007
131.0	1.88034e+007
135.8	1.87055e+007
140.7	1.87006e+007
145.9	1.85703e+007
151.2	1.82697e+007
156.8	1.82352e+007
162.5	1.78646e+007
168.5	1.75981e+007
174.7	1.73498e+007
181.1	1.70598e+007
187.7	1.66673e+007
194.6	1.61774e+007
201.7	1.57564e+007
209.1	1.53706e+007
216.7	1.47843e+007
224.7	1.40376e+007
232.9	1.33921e+007
241.4	1.28199e+007
250.3	1.21838e+007
259.5	1.13727e+007
269.0	1.08709e+007
278.8	1.00284e+007
289.0	9.2461e+006
299.6	8.48443e+006
310.6	7.69876e+006
322.0	7.01402e+006
333.8	6.3488e+006
346.0	5.67559e+006
358.7	4.95814e+006
371.8	4.444e+006
385.4	3.90007e+006
399.5	3.31045e+006
414.2	2.87461e+006
429.4	2.42757e+006
445.1	2.06559e+006
461.4	1.79296e+006
478.3	1.53247e+006
495.8	1.31446e+006
514.0	1.08644e+006
532.8	945999
552.3	791781
572.5	704966
593.5	601553
615.3	511382
637.8	443164
661.2	380420
Scan Up Time(s)	120
Retrace Time(s)	15
Down Scan First	FALSE
Scans Per Sample	1
Impactor Type(cm)	None
Sheath Flow(lpm)	3
Aerosol Flow(lpm)	0.3
CPC Inlet Flow(lpm)	0.3
CPC Sample Flow(lpm)	0.05
Low Voltage	10.7719
High Voltage	9558.91
Lower Size(nm)	14.8551
Upper Size(nm)	673.17
Density(g/cc)	1.2
Title	
Status Flag	Normal Scan
td(s)	3.43
tf(s)	7.52082
D50(nm)	1000
Median(nm)		144.261
Mean(nm)	167.937
Geo. Mean(nm)	147.39
Mode(nm)	126.346
Geo. Std. Dev.	1.65965
Total Concentration(#/cm³)	1.13641e+007
Raw Data - Time(s)	Diameter #1	Counts #1	
0.1	10.890653	0	
0.2	10.921781	0	
0.3	10.952890	0	
0.4	10.984303	0	
0.5	11.015702	0	
0.6	11.047084	0	
0.7	11.078663	0	
0.8	11.110443	0	
0.9	11.142099	0	
1.0	11.173954	0	
1.1	11.206011	0	
1.2	11.238053	0	
1.3	11.270076	0	
1.4	11.302412	0	
1.5	11.334734	0	
1.6	11.367037	0	
1.7	11.399656	0	
1.8	11.432260	0	
1.9	11.464846	0	
2.0	11.497749	0	
2.1	11.530637	0	
2.2	11.563508	0	
2.3	11.596698	0	
2.4	11.629875	0	
2.5	11.663032	0	
2.6	11.696513	0	
2.7	11.729979	0	
2.8	11.763426	0	
2.9	11.797200	0	
3.0	11.830958	0	
3.1	11.864698	0	
3.2	11.898767	0	
3.3	11.932704	0	
3.4	11.966854	0	
3.5	12.001222	0	
3.6	12.035456	0	
3.7	12.069905	0	
3.8	12.104574	0	
3.9	12.139107	0	
4.0	12.173975	0	
4.1	12.208830	0	
4.2	12.243664	0	
4.3	12.278839	0	
4.4	12.313878	0	
4.5	12.349137	0	
4.6	12.384620	0	
4.7	12.419965	0	
4.8	12.455654	0	
4.9	12.491328	0	
5.0	12.526982	0	
5.1	12.562984	0	
5.2	12.598847	0	
5.3	12.635058	0	
5.4	12.671254	0	
5.5	12.707431	0	
5.6	12.743960	0	
5.7	12.780349	0	
5.8	12.816965	0	
5.9	12.853816	0	
6.0	12.890523	0	
6.1	12.927587	0	
6.2	12.964509	0	
6.3	13.001788	0	
6.4	13.039054	0	
6.5	13.076298	0	
6.6	13.113906	0	
6.7	13.151370	0	
6.8	13.189196	0	
6.9	13.227008	0	
7.0	13.264798	0	
7.1	13.302958	0	
7.2	13.340971	0	
7.3	13.379352	0	
7.4	13.417588	0	
7.5	13.456193	0	
7.6	13.494784	0	
7.7	13.533354	0	
7.8	13.572300	0	
7.9	13.611096	0	
8.0	13.650269	0	
8.1	13.689294	0	
8.2	13.728694	0	
8.3	13.767948	0	
8.4	13.807446	0	
8.5	13.847196	0	
8.6	13.886792	0	
8.7	13.926773	0	
8.8	13.966602	0	
8.9	14.006817	0	
9.0	14.046880	0	
9.1	14.087329	0	
9.2	14.127627	0	
9.3	14.168313	0	
9.4	14.208985	0	
9.5	14.249634	0	
9.6	14.290681	0	
9.7	14.331570	0	
9.8	14.372856	0	
9.9	14.413985	0	
10.0	14.455513	0	
10.1	14.496884	0	
10.2	14.538655	0	
10.3	14.580268	0	
10.4	14.622283	0	
10.5	14.664142	0	
10.6	14.706403	0	
10.7	14.748507	0	
10.8	14.791016	0	
10.9	14.833368	0	
11.0	14.876125	0	
11.1	14.918870	0	
11.2	14.961591	0	
11.3	15.004730	0	
11.4	15.047702	0	
11.5	15.091094	0	
11.6	15.134318	0	
11.7	15.177965	0	
11.8	15.221444	0	
11.9	15.265347	0	
12.0	15.309081	0	
12.1	15.353242	0	
12.2	15.397233	0	
12.3	15.441654	0	
12.4	15.485903	0	
12.5	15.530585	0	
12.6	15.575095	0	
12.7	15.620040	0	
12.8	15.664811	0	
12.9	15.710020	0	
13.0	15.755055	0	
13.1	15.800530	0	
13.2	15.845829	0	
13.3	15.891420	0	
13.4	15.937292	0	
13.5	15.982997	0	
13.6	16.029139	0	
13.7	16.075113	0	
13.8	16.121528	0	
13.9	16.167772	0	
14.0	16.214460	0	
14.1	16.260977	0	
14.2	16.307940	0	
14.3	16.354730	0	
14.4	16.401971	0	
14.5	16.449036	0	
14.6	16.496557	0	
14.7	16.543898	0	
14.8	16.591700	0	
14.9	16.639319	0	
15.0	16.687404	0	
15.1	16.735464	0	
15.2	16.783511	0	
15.3	16.832017	0	
15.4	16.880346	0	
15.5	16.929139	0	
15.6	16.977752	0	
15.7	17.026834	0	
15.8	17.075733	0	
15.9	17.125107	0	
16.0	17.174293	0	
16.1	17.223795	0	
16.2	17.273601	0	
16.3	17.323229	0	
16.4	17.373332	0	
16.5	17.423251	0	
16.6	17.473651	0	
16.7	17.523864	0	
16.8	17.574564	0	
16.9	17.625073	0	
17.0	17.675905	0	
17.1	17.727050	0	
17.2	17.778012	0	
17.3	17.829462	0	
17.4	17.880723	0	
17.5	17.932480	0	
17.6	17.984043	0	
17.7	18.035936	0	
17.8	18.088148	0	
17.9	18.140174	0	
18.0	18.192698	0	
18.1	18.245030	0	
18.2	18.297868	0	
18.3	18.350682	0	
18.4	18.403483	0	
18.5	18.456787	0	
18.6	18.509899	0	
18.7	18.563522	0	
18.8	18.616946	0	
18.9	18.670712	0	
19.0	18.724808	0	
19.1	18.778713	0	
19.2	18.833133	0	
19.3	18.887354	0	
19.4	18.942101	0	
19.5	18.996823	0	
19.6	19.051531	0	
19.7	19.106763	0	
19.8	19.161793	0	
19.9	19.217355	0	
20.0	19.272893	0	
20.1	19.328418	0	
20.2	19.384473	0	
20.3	19.440325	0	
20.4	19.496717	0	
20.5	19.553084	0	
20.6	19.609437	0	
20.7	19.666330	0	
20.8	19.723015	0	
20.9	19.780061	0	
21.0	19.837459	0	
21.1	19.894654	0	
21.2	19.952398	0	
21.3	20.009928	0	
21.4	20.067828	0	
21.5	20.126085	0	
21.6	20.184134	0	
21.7	20.242743	0	
21.8	20.301327	0	
21.9	20.359898	0	
22.0	20.419029	0	
22.1	20.477944	0	
22.2	20.537236	0	
22.3	20.596894	0	
22.4	20.656340	0	
22.5	20.716359	0	
22.6	20.776353	0	
22.7	20.836334	0	
22.8	20.896889	1	
22.9	20.957421	0	
23.0	21.017942	0	
23.1	21.079038	0	
23.2	21.139915	0	
23.3	21.201180	0	
23.4	21.262822	0	
23.5	21.324247	0	
23.6	21.386264	0	
23.7	21.448255	0	
23.8	21.510235	0	
23.9	21.572806	0	
24.0	21.635355	0	
24.1	21.697893	0	
24.2	21.761026	0	
24.3	21.823931	1	
24.4	21.887238	0	
24.5	21.950937	0	
24.6	22.014409	0	
24.7	22.078286	0	
24.8	22.142557	0	
24.9	22.206602	0	
25.0	22.271054	0	
25.1	22.335902	0	
25.2	22.400524	0	
25.3	22.465557	0	
25.4	22.530988	0	
25.5	22.596193	0	
25.6	22.661812	0	
25.7	22.727833	0	
25.8	22.793626	0	
25.9	22.859836	0	
26.0	22.926452	0	
26.1	22.992839	0	
26.2	23.059646	0	
26.3	23.126863	0	
26.4	23.193850	0	
26.5	23.261260	0	
26.6	23.329083	0	
26.7	23.396675	0	
26.8	23.464694	0	
26.9	23.533130	0	
27.0	23.601332	0	
27.1	23.669966	0	
27.2	23.739022	0	
27.3	23.807839	0	
27.4	23.877094	0	
27.5	23.946775	0	
27.6	24.016214	0	
27.7	24.086095	1	
27.8	24.156408	0	
27.9	24.226702	0	
28.0	24.296989	0	
28.1	24.367939	1	
28.2	24.438870	0	
28.3	24.509792	1	
28.4	24.581387	1	
28.5	24.652961	0	
28.6	24.724524	0	
28.7	24.796538	2	
28.8	24.868993	1	
28.9	24.941203	0	
29.0	25.013871	0	
29.1	25.086985	0	
29.2	25.159849	0	
29.3	25.233176	2	
29.4	25.306957	0	
29.5	25.380719	1	
29.6	25.454473	0	
29.7	25.528927	0	
29.8	25.603359	0	
29.9	25.677781	0	
30.0	25.752672	0	
30.1	25.828024	0	
30.2	25.903119	1	
30.3	25.978693	0	
30.4	26.054734	1	
30.5	26.130755	1	
30.6	26.206770	0	
30.7	26.283262	1	
30.8	26.360222	1	
30.9	26.436924	0	
31.0	26.514114	1	
31.1	26.591779	2	
31.2	26.669427	1	
31.3	26.747070	2	
31.4	26.825199	1	
31.5	26.903805	3	
31.6	26.982151	0	
31.7	27.060993	3	
31.8	27.140322	3	
31.9	27.219634	1	
32.0	27.298941	2	
32.1	27.378745	0	
32.2	27.459037	2	
32.3	27.539062	0	
32.4	27.619596	0	
32.5	27.700629	0	
32.6	27.781643	2	
32.7	27.862650	3	
32.8	27.944168	2	
32.9	28.026187	2	
33.0	28.108191	3	
33.1	28.190193	4	
33.2	28.272708	1	
33.3	28.355726	5	
33.4	28.438472	1	
33.5	28.521743	3	
33.6	28.605531	1	
33.7	28.689300	9	
33.8	28.773063	0	
33.9	28.857354	4	
34.0	28.942165	3	
34.1	29.026961	8	
34.2	29.111754	5	
34.3	29.197079	12	
34.4	29.282928	2	
34.5	29.368765	2	
34.6	29.454600	1	
34.7	29.540973	7	
34.8	29.627874	6	
34.9	29.714765	3	
35.0	29.801657	5	
35.1	29.889091	3	
35.2	29.977059	10	
35.3	30.065018	4	
35.4	30.152980	4	
35.5	30.241490	3	
35.6	30.330539	5	
35.7	30.419582	12	
35.8	30.508627	7	
35.9	30.598227	4	
36.0	30.688373	13	
36.1	30.778512	6	
36.2	30.868655	14	
36.3	30.959360	9	
36.4	31.050617	11	
36.5	31.141868	6	
36.6	31.233124	13	
36.7	31.324948	8	
36.8	31.417332	14	
36.9	31.509710	17	
37.0	31.602092	8	
37.1	31.695051	15	
37.2	31.788578	14	
37.3	31.882098	15	
37.4	31.975621	12	
37.5	32.069729	10	
37.6	32.164415	13	
37.7	32.259093	22	
37.8	32.353771	12	
37.9	32.449045	14	
38.0	32.544907	13	
38.1	32.640758	16	
38.2	32.736606	17	
38.3	32.833061	12	
38.4	32.929814	17	
38.5	33.027155	18	
38.6	33.124494	19	
38.7	33.221841	24	
38.8	33.319795	15	
38.9	33.418349	24	
39.0	33.516898	21	
39.1	33.615450	24	
39.2	33.714622	14	
39.3	33.814406	21	
39.4	33.914180	18	
39.5	34.014264	27	
39.6	34.114360	26	
39.7	34.215076	27	
39.8	34.316408	28	
39.9	34.417739	20	
40.0	34.519075	30	
40.1	34.621048	34	
40.2	34.723649	30	
40.3	34.826243	32	
40.4	34.929156	32	
40.5	35.032082	38	
40.6	35.135648	39	
40.7	35.239847	23	
40.8	35.344046	28	
40.9	35.448250	39	
41.0	35.553110	35	
41.1	35.658297	37	
41.2	35.764122	44	
41.3	35.869952	26	
41.4	35.975794	42	
41.5	36.082297	49	
41.6	36.189457	31	
41.7	36.296613	29	
41.8	36.404103	43	
41.9	36.511610	30	
42.0	36.619785	48	
42.1	36.728624	41	
42.2	36.837462	57	
42.3	36.946641	38	
42.4	37.055840	52	
42.5	37.165716	47	
42.6	37.276264	54	
42.7	37.386815	69	
42.8	37.497375	66	
42.9	37.608633	57	
43.0	37.720239	49	
43.1	37.832527	58	
43.2	37.944820	57	
43.3	38.057124	58	
43.4	38.170136	73	
43.5	38.283502	66	
43.6	38.397562	67	
43.7	38.511627	67	
43.8	38.626052	71	
43.9	38.740502	74	
44.0	38.855660	73	
44.1	38.971523	100	
44.2	39.087392	85	
44.3	39.203626	82	
44.4	39.319887	77	
44.5	39.436868	95	
44.6	39.554567	100	
44.7	39.672272	88	
44.8	39.790348	98	
44.9	39.908449	103	
45.0	40.027285	105	
45.1	40.146496	108	
45.2	40.266427	116	
45.3	40.386377	98	
45.4	40.506350	122	
45.5	40.627074	144	
45.6	40.748180	111	
45.7	40.870022	111	
45.8	40.991880	137	
45.9	41.114124	103	
46.0	41.236402	119	
46.1	41.359436	134	
46.2	41.483225	120	
46.3	41.607024	127	
46.4	41.731217	154	
46.5	41.855438	143	
46.6	41.980434	170	
46.7	42.105827	161	
46.8	42.231982	162	
46.9	42.358157	166	
47.0	42.484734	165	
47.1	42.611349	179	
47.2	42.738747	161	
47.3	42.866929	142	
47.4	42.995123	187	
47.5	43.123725	191	
47.6	43.252358	180	
47.7	43.381797	214	
47.8	43.511648	205	
47.9	43.642293	204	
48.0	43.772958	229	
48.1	43.904040	212	
48.2	44.035159	187	
48.3	44.167096	250	
48.4	44.299453	219	
48.5	44.432617	202	
48.6	44.565806	204	
48.7	44.699422	280	
48.8	44.833080	233	
48.9	44.967568	246	
49.0	45.102486	274	
49.1	45.238225	255	
49.2	45.373994	248	
49.3	45.510198	258	
49.4	45.646448	292	
49.5	45.783544	263	
49.6	45.921080	269	
49.7	46.059453	286	
49.8	46.197857	266	
49.9	46.336707	308	
50.0	46.475604	315	
50.1	46.615365	309	
50.2	46.755576	349	
50.3	46.896642	339	
50.4	47.037740	340	
50.5	47.179293	350	
50.6	47.320894	362	
50.7	47.463379	343	
50.8	47.606323	379	
50.9	47.750144	372	
51.0	47.893996	355	
51.1	48.038313	405	
51.2	48.183097	351	
51.3	48.327944	407	
51.4	48.473682	408	
51.5	48.619893	434	
51.6	48.766988	396	
51.7	48.914130	463	
51.8	49.061749	428	
51.9	49.209427	443	
52.0	49.358022	482	
52.1	49.507099	457	
52.2	49.657089	465	
52.3	49.807118	528	
52.4	49.957636	466	
52.5	50.108643	468	
52.6	50.259721	505	
52.7	50.411730	488	
52.8	50.564234	553	
52.9	50.717664	562	
53.0	50.871145	610	
53.1	51.025126	573	
53.2	51.179170	545	
53.3	51.334176	569	
53.4	51.489688	554	
53.5	51.645708	588	
53.6	51.802672	603	
53.7	51.959695	631	
53.8	52.117232	629	
53.9	52.274839	656	
54.0	52.433428	706	
54.1	52.592536	672	
54.2	52.752165	685	
54.3	52.912759	710	
54.4	53.073418	680	
54.5	53.234605	743	
54.6	53.395867	735	
54.7	53.558134	781	
54.8	53.720934	822	
54.9	53.884269	804	
55.0	54.048592	820	
55.1	54.212984	853	
55.2	54.377919	865	
55.3	54.543397	872	
55.4	54.708973	875	
55.5	54.875563	893	
55.6	55.042703	898	
55.7	55.210859	899	
55.8	55.379085	937	
55.9	55.547867	911	
56.0	55.717208	934	
56.1	55.886645	996	
56.2	56.057128	969	
56.3	56.228175	991	
56.4	56.399788	1096	
56.5	56.572434	1019	
56.6	56.745167	1004	
56.7	56.918475	1107	
56.8	57.092358	1174	
56.9	57.266355	1070	
57.0	57.441416	1107	
57.1	57.617058	1100	
57.2	57.793769	1267	
57.3	57.970562	1268	
57.4	58.147944	1219	
57.5	58.325917	1260	
57.6	58.503997	1321	
57.7	58.683180	1304	
57.8	58.862961	1259	
57.9	59.043342	1330	
58.0	59.224816	1355	
58.1	59.406384	1374	
58.2	59.588560	1366	
58.3	59.771346	1373	
58.4	59.954248	1440	
58.5	60.138282	1428	
58.6	60.322932	1442	
58.7	60.508200	1511	
58.8	60.694592	1484	
58.9	60.881086	1549	
59.0	61.068206	1524	
59.1	61.255956	1548	
59.2	61.443829	1586	
59.3	61.632866	1678	
59.4	61.822540	1632	
59.5	62.012851	1634	
59.6	62.204321	1684	
59.7	62.395897	1728	
59.8	62.588119	1784	
59.9	62.780991	1770	
60.0	62.974515	1807	
60.1	63.168189	1847	
60.2	63.363045	1899	
60.3	63.558561	1861	
60.4	63.754739	2013	
60.5	63.952097	1880	
60.6	64.149584	1997	
60.7	64.347742	2050	
60.8	64.546573	2094	
60.9	64.745551	2122	
61.0	64.945758	2112	
61.1	65.146646	2142	
61.2	65.348216	2205	
61.3	65.550472	2228	
61.4	65.753938	2233	
61.5	65.957552	2168	
61.6	66.161862	2256	
61.7	66.366869	2259	
61.8	66.572040	2398	
61.9	66.778473	2364	
62.0	66.985611	2358	
62.1	67.193458	2478	
62.2	67.402015	2492	
62.3	67.611817	2529	
62.4	67.821784	2614	
62.5	68.032470	2573	
62.6	68.243880	2665	
62.7	68.455466	2572	
62.8	68.668355	2706	
62.9	68.881974	2679	
63.0	69.096328	2778	
63.1	69.311420	2789	
63.2	69.527800	2834	
63.3	69.744352	2872	
63.4	69.961652	2940	
63.5	70.179702	2903	
63.6	70.398505	3075	
63.7	70.617517	3019	
63.8	70.837859	3089	
63.9	71.058963	3235	
64.0	71.280832	3138	
64.1	71.504042	3202	
64.2	71.727426	3227	
64.3	71.951586	3305	
64.4	72.176524	3261	
64.5	72.402243	3410	
64.6	72.628172	3340	
64.7	72.855489	3504	
64.8	73.083596	3519	
64.9	73.312497	3547	
65.0	73.542195	3600	
65.1	73.773275	3620	
65.2	74.004553	3751	
65.3	74.236639	3773	
65.4	74.469536	3776	
65.5	74.703248	3878	
65.6	74.937189	3899	
65.7	75.172565	3900	
65.8	75.408765	4015	
65.9	75.645792	3973	
66.0	75.883651	4065	
66.1	76.122943	4204	
66.2	76.362448	4218	
66.3	76.602796	4201	
66.4	76.843990	4245	
66.5	77.086033	4263	
66.6	77.328930	4346	
66.7	77.572096	4353	
66.8	77.816734	4415	
66.9	78.062234	4483	
67.0	78.308601	4470	
67.1	78.555839	4498	
67.2	78.804551	4554	
67.3	79.053515	4702	
67.4	79.303360	4705	
67.5	79.554092	4724	
67.6	79.805714	4731	
67.7	80.057610	4791	
67.8	80.311049	4982	
67.9	80.565388	4950	
68.0	80.820631	4873	
68.1	81.076782	4950	
68.2	81.333845	4871	
68.3	81.592436	5052	
68.4	81.851309	5248	
68.5	82.111106	5157	
68.6	82.371831	5335	
68.7	82.633490	5288	
68.8	82.895447	5198	
68.9	83.159009	5315	
69.0	83.423515	5473	
69.1	83.688969	5359	
69.2	83.955375	5472	
69.3	84.222736	5427	
69.4	84.491695	5718	
69.5	84.760954	5548	
69.6	85.031182	5515	
69.7	85.302384	5745	
69.8	85.574564	5725	
69.9	85.847727	5728	
70.0	86.121236	5734	
70.1	86.396403	5995	
70.2	86.672563	6176	
70.3	86.949723	6054	
70.4	87.227885	5988	
70.5	87.507054	6117	
70.6	87.787881	6021	
70.7	88.069050	6222	
70.8	88.351242	6150	
70.9	88.634459	6354	
71.0	88.918706	6259	
71.1	89.203989	6396	
71.2	89.489656	6243	
71.3	89.777051	6306	
71.4	90.065493	6507	
71.5	90.354988	6463	
71.6	90.645541	6409	
71.7	90.937155	6558	
71.8	91.230506	6656	
71.9	91.524229	6715	
72.0	91.819030	6824	
72.1	92.114912	6738	
72.2	92.411882	6804	
72.3	92.709943	6792	
72.4	93.008412	6815	
72.5	93.308701	6778	
72.6	93.610095	6879	
72.7	93.912599	6886	
72.8	94.216218	6995	
72.9	94.520957	7038	
73.0	94.826822	7124	
73.1	95.134498	7008	
73.2	95.442599	7050	
73.3	95.751843	7247	
73.4	96.062233	7315	
73.5	96.373775	7194	
73.6	96.686474	7336	
73.7	96.999627	7286	
73.8	97.314687	7427	
73.9	97.630919	7355	
74.0	97.948328	7403	
74.1	98.266919	7526	
74.2	98.586699	7496	
74.3	98.907672	7370	
74.4	99.230555	7431	
74.5	99.553901	7508	
74.6	99.878458	7605	
74.7	100.204232	7588	
74.8	100.531228	7588	
74.9	100.859452	7710	
75.0	101.188910	7706	
75.1	101.518888	7684	
75.2	101.850860	7866	
75.3	102.184082	7643	
75.4	102.518559	7854	
75.5	102.854296	7690	
75.6	103.191301	7877	
75.7	103.529578	7771	
75.8	103.869865	7884	
75.9	104.210674	7913	
76.0	104.552774	7976	
76.1	104.896173	7972	
76.2	105.240875	7972	
76.3	105.586887	7883	
76.4	105.934215	8016	
76.5	106.282115	8011	
76.6	106.632126	7970	
76.7	106.983470	7954	
76.8	107.336154	8046	
76.9	107.690183	7963	
77.0	108.045564	8018	
77.1	108.402304	8096	
77.2	108.760409	8192	
77.3	109.120628	8271	
77.4	109.481449	8099	
77.5	109.843657	8044	
77.6	110.207257	8083	
77.7	110.572255	8184	
77.8	110.938659	8164	
77.9	111.306475	8242	
78.0	111.674934	8260	
78.1	112.045628	8276	
78.2	112.417752	8146	
78.3	112.791314	8402	
78.4	113.166321	8335	
78.5	113.542779	8389	
78.6	113.920696	8236	
78.7	114.300078	8489	
78.8	114.681715	8337	
78.9	115.064015	8465	
79.0	115.447803	8385	
79.1	115.833087	8472	
79.2	116.219873	8487	
79.3	116.608169	8530	
79.4	116.997981	8389	
79.5	117.389318	8458	
79.6	117.781389	8492	
79.7	118.175831	8450	
79.8	118.571817	8386	
79.9	118.969356	8395	
80.0	119.368455	8491	
80.1	119.769121	8538	
80.2	120.171363	8347	
80.3	120.575187	8501	
80.4	120.980602	8447	
80.5	121.388400	8509	
80.6	121.796986	8545	
80.7	122.207187	8333	
80.8	122.619012	8560	
80.9	123.032468	8471	
81.0	123.447563	8543	
81.1	123.864306	8642	
81.2	124.282704	8604	
81.3	124.701948	8524	
81.4	125.123717	8574	
81.5	125.547164	8571	
81.6	125.972298	8709	
81.7	126.399127	8748	
81.8	126.827660	8504	
81.9	127.257905	8735	
82.0	127.689870	8660	
82.1	128.123565	8567	
82.2	128.559821	8668	
82.3	128.996963	8613	
82.4	129.435862	8668	
82.5	129.876526	8735	
82.6	130.318965	8661	
82.7	130.763186	8732	
82.8	131.209199	8668	
82.9	131.657012	8717	
83.0	132.106636	8763	
83.1	132.557236	8480	
83.2	133.010543	8613	
83.3	133.465685	8696	
83.4	133.922671	8725	
83.5	134.381512	8613	
83.6	134.842217	8735	
83.7	135.304794	8689	
83.8	135.769253	8672	
83.9	136.235605	8799	
84.0	136.704730	8755	
84.1	137.174856	8555	
84.2	137.646904	8637	
84.3	138.120885	8652	
84.4	138.596807	8620	
84.5	139.074681	8734	
84.6	139.554517	8757	
84.7	140.036324	8635	
84.8	140.520113	8646	
84.9	141.005894	8748	
85.0	141.492799	8730	
85.1	141.982632	8684	
85.2	142.474486	8803	
85.3	142.968371	8651	
85.4	143.464298	8663	
85.5	143.962277	8709	
85.6	144.462319	8759	
85.7	144.964434	8660	
85.8	145.468634	8647	
85.9	145.974928	8635	
86.0	146.484225	8576	
86.1	146.994702	8575	
86.2	147.507309	8583	
86.3	148.022055	8750	
86.4	148.538953	8717	
86.5	149.058013	8687	
86.6	149.579247	8649	
86.7	150.102666	8542	
86.8	150.628281	8602	
86.9	151.156103	8573	
87.0	151.686144	8618	
87.1	152.217523	8396	
87.2	152.752077	8486	
87.3	153.288883	8644	
87.4	153.827953	8592	
87.5	154.369298	8734	
87.6	154.912932	8553	
87.7	155.458866	8591	
87.8	156.007112	8556	
87.9	156.557682	8569	
88.0	157.110589	8696	
88.1	157.665845	8487	
88.2	158.224368	8631	
88.3	158.784319	8572	
88.4	159.346657	8518	
88.5	159.911397	8675	
88.6	160.478549	8646	
88.7	161.048128	8373	
88.8	161.620145	8375	
88.9	162.194614	8450	
89.0	162.771547	8319	
89.1	163.350958	8546	
89.2	163.932860	8243	
89.3	164.516328	8459	
89.4	165.103292	8443	
89.5	165.692786	8430	
89.6	166.284823	8366	
89.7	166.879415	8314	
89.8	167.476578	8402	
89.9	168.076325	8422	
90.0	168.678669	8278	
90.1	169.283624	8286	
90.2	169.891205	8340	
90.3	170.501426	8448	
90.4	171.114301	8293	
90.5	171.730796	8153	
90.6	172.348980	8255	
90.7	172.969863	8183	
90.8	173.593458	8194	
90.9	174.219782	8289	
91.0	174.848849	8338	
91.1	175.480673	8149	
91.2	176.115269	8288	
91.3	176.752652	8229	
91.4	177.392838	8034	
91.5	178.035841	8099	
91.6	178.681677	8199	
91.7	179.329372	8222	
91.8	179.980963	7999	
91.9	180.635431	8052	
92.0	181.292792	8176	
92.1	181.953063	8080	
92.2	182.616257	8165	
92.3	183.282393	7961	
92.4	183.951485	7925	
92.5	184.623551	8238	
92.6	185.298605	7861	
92.7	185.976666	7914	
92.8	186.657748	8006	
92.9	187.341870	7928	
93.0	188.029046	7816	
93.1	188.720263	7833	
93.2	189.413559	7882	
93.3	190.109962	7868	
93.4	190.809490	7856	
93.5	191.512161	7812	
93.6	192.217991	7807	
93.7	192.926998	7858	
93.8	193.639199	7770	
93.9	194.354611	7767	
94.0	195.073254	7577	
94.1	195.795143	7689	
94.2	196.520298	7421	
94.3	197.248737	7683	
94.4	197.979455	7586	
94.5	198.714559	7554	
94.6	199.453000	7526	
94.7	200.194796	7463	
94.8	200.939965	7478	
94.9	201.688526	7451	
95.0	202.440499	7449	
95.1	203.195902	7496	
95.2	203.954754	7405	
95.3	204.717075	7529	
95.4	205.482884	7434	
95.5	206.252201	7382	
95.6	207.025044	7345	
95.7	207.801435	7332	
95.8	208.581392	7247	
95.9	209.365957	7316	
96.0	210.153063	7360	
96.1	210.943797	7163	
96.2	211.738181	7224	
96.3	212.536234	7252	
96.4	213.337977	7056	
96.5	214.143431	7203	
96.6	214.952617	6952	
96.7	215.765555	7163	
96.8	216.582266	6935	
96.9	217.402772	6991	
97.0	218.227093	6990	
97.1	219.055252	6986	
97.2	219.887270	6904	
97.3	220.723169	6775	
97.4	221.561908	6692	
97.5	222.405680	6730	
97.6	223.253397	6741	
97.7	224.105080	6571	
97.8	224.960753	6553	
97.9	225.820439	6535	
98.0	226.684159	6714	
98.1	227.551936	6610	
98.2	228.423794	6587	
98.3	229.299756	6437	
98.4	230.179845	6535	
98.5	231.064085	6426	
98.6	231.952499	6411	
98.7	232.845110	6296	
98.8	233.741943	6267	
98.9	234.643022	6295	
99.0	235.548370	6271	
99.1	236.459070	6159	
99.2	237.372985	6012	
99.3	238.291245	6150	
99.4	239.213874	6128	
99.5	240.140898	6047	
99.6	241.072341	6095	
99.7	242.008229	6042	
99.8	242.948586	6007	
99.9	243.893439	5884	
100.0	244.842812	5890	
100.1	245.796732	5779	
100.2	246.755224	5809	
100.3	247.718315	5764	
100.4	248.686030	5741	
100.5	249.658396	5756	
100.6	250.635440	5834	
100.7	251.617188	5673	
100.8	252.603667	5671	
100.9	253.593843	5462	
101.0	254.589911	5583	
101.1	255.590790	5476	
101.2	256.596508	5458	
101.3	257.607091	5395	
101.4	258.622568	5373	
101.5	259.642968	5301	
101.6	260.668317	5412	
101.7	261.698645	5185	
101.8	262.733981	5171	
101.9	263.774352	5076	
102.0	264.819788	5094	
102.1	265.870318	5107	
102.2	266.925972	5017	
102.3	267.986778	5051	
102.4	269.052766	5046	
102.5	270.123966	5138	
102.6	271.200408	5001	
102.7	272.282122	4998	
102.8	273.370220	4931	
102.9	274.462523	4842	
103.0	275.560191	4769	
103.1	276.663255	4742	
103.2	277.771746	4720	
103.3	278.885695	4569	
103.4	280.005134	4532	
103.5	281.130094	4583	
103.6	282.260606	4589	
103.7	283.396703	4489	
103.8	284.538417	4451	
103.9	285.685779	4312	
104.0	286.838823	4385	
104.1	287.997580	4293	
104.2	289.162085	4174	
104.3	290.332369	4202	
104.4	291.508466	4165	
104.5	292.690410	4166	
104.6	293.878233	4111	
104.7	295.071971	4055	
104.8	296.270523	4062	
104.9	297.476239	3924	
105.0	298.687968	3994	
105.1	299.905747	3785	
105.2	301.129610	3823	
105.3	302.359592	3687	
105.4	303.595728	3787	
105.5	304.838054	3645	
105.6	306.086605	3748	
105.7	307.341418	3561	
105.8	308.602528	3592	
105.9	309.869972	3517	
106.0	311.143786	3537	
106.1	312.424007	3342	
106.2	313.710672	3410	
106.3	315.003818	3337	
106.4	316.303481	3364	
106.5	317.609701	3276	
106.6	318.922514	3180	
106.7	320.241959	3343	
106.8	321.568073	3277	
106.9	322.900895	3136	
107.0	324.240464	3104	
107.1	325.587949	3002	
107.2	326.941081	3013	
107.3	328.301078	2886	
107.4	329.667980	3033	
107.5	331.041827	2912	
107.6	332.422659	2842	
107.7	333.810515	2841	
107.8	335.205437	2776	
107.9	336.607464	2784	
108.0	338.016637	2716	
108.1	339.432998	2707	
108.2	340.856588	2606	
108.3	342.287447	2653	
108.4	343.725619	2588	
108.5	345.171144	2497	
108.6	346.624066	2530	
108.7	348.084425	2494	
108.8	349.552266	2472	
108.9	351.027631	2413	
109.0	352.510563	2365	
109.1	354.001106	2295	
109.2	355.499303	2282	
109.3	357.005198	2207	
109.4	358.518835	2212	
109.5	360.040258	2115	
109.6	361.568372	2132	
109.7	363.105550	2022	
109.8	364.650647	2150	
109.9	366.203709	1992	
110.0	367.764781	2031	
110.1	369.333910	1907	
110.2	370.911141	1967	
110.3	372.496521	1934	
110.4	374.090097	1893	
110.5	375.691916	1886	
110.6	377.302024	1952	
110.7	378.920470	1769	
110.8	380.547301	1822	
110.9	382.182564	1721	
111.0	383.826309	1656	
111.1	385.478584	1700	
111.2	387.139437	1602	
111.3	388.808918	1718	
111.4	390.487076	1562	
111.5	392.173960	1603	
111.6	393.869620	1507	
111.7	395.574107	1476	
111.8	397.287471	1422	
111.9	399.009762	1431	
112.0	400.741032	1443	
112.1	402.481332	1397	
112.2	404.230713	1395	
112.3	405.990408	1281	
112.4	407.758059	1329	
112.5	409.534949	1286	
112.6	411.321131	1270	
112.7	413.116658	1230	
112.8	414.921582	1303	
112.9	416.735958	1109	
113.0	418.559839	1096	
113.1	420.393279	1195	
113.2	422.236333	1115	
113.3	424.089055	1093	
113.4	425.951500	1038	
113.5	427.823723	1028	
113.6	429.705779	1002	
113.7	431.597726	1015	
113.8	433.499618	956	
113.9	435.411512	998	
114.0	437.333466	917	
114.1	439.265535	922	
114.2	441.207778	938	
114.3	443.160252	882	
114.4	445.123015	832	
114.5	447.096125	879	
114.6	449.079642	805	
114.7	451.073623	782	
114.8	453.078129	796	
114.9	455.093219	744	
115.0	457.118953	812	
115.1	459.155390	797	
115.2	461.202593	721	
115.3	463.259417	740	
115.4	465.328382	731	
115.5	467.408294	649	
115.6	469.499214	668	
115.7	471.601205	686	
115.8	473.714330	640	
115.9	475.838651	676	
116.0	477.974232	628	
116.1	480.121137	580	
116.2	482.279429	613	
116.3	484.449174	556	
116.4	486.630435	573	
116.5	488.823278	564	
116.6	491.027768	572	
116.7	493.243972	525	
116.8	495.471954	557	
116.9	497.711783	529	
117.0	499.963524	495	
117.1	502.227245	500	
117.2	504.503013	474	
117.3	506.790897	461	
117.4	509.090964	430	
117.5	511.403284	435	
117.6	513.727925	429	
117.7	516.064958	430	
117.8	518.414451	418	
117.9	520.776476	405	
118.0	523.151102	420	
118.1	525.538401	380	
118.2	527.938444	394	
118.3	530.351304	386	
118.4	532.777051	377	
118.5	535.216951	359	
118.6	537.668638	372	
118.7	540.133434	355	
118.8	542.611412	329	
118.9	545.102648	294	
119.0	547.607215	335	
119.1	550.125189	303	
119.2	552.656644	314	
119.3	555.201657	317	
119.4	557.760304	303	
119.5	560.332661	306	
119.6	562.918805	269	
119.7	565.518814	287	
119.8	568.132767	267	
119.9	570.760740	296	
120.0	573.402813	248	
120.1	576.059066	268	
120.2	578.729577	233	
120.3	581.414428	279	
120.4	584.113698	267	
120.5	586.827468	231	
120.6	589.555821	229	
120.7	592.298837	228	
120.8	595.056600	245	
120.9	597.829191	232	
121.0	600.616696	199	
121.1	603.419196	212	
121.2	606.235518	205	
121.3	609.068348	197	
121.4	611.916424	198	
121.5	614.779834	197	
121.6	617.658663	182	
121.7	620.552998	189	
121.8	623.462925	186	
121.9	626.388534	177	
122.0	629.329912	166	
122.1	632.287148	176	
122.2	635.260330	183	
122.3	638.249549	168	
122.4	641.254895	178	
122.5	644.276458	142	
122.6	647.314330	143	
122.7	650.368603	133	
122.8	653.440633	152	
122.9	656.527763	143	
123.0	659.631580	130	
123.1	662.752176	137	
123.2	665.889647	121	
123.3	669.042842	137	
123.4	672.215307	147	
123.5	675.404904	135	
123.6	678.610173	150	
123.7	681.833445	146	
123.8	685.074168	139	
123.9	688.332440	150	
124.0	691.608358	165	
124.1	694.902023	126	
124.2	698.213533	156	
124.3	701.544308	143	
124.4	704.891936	151	
124.5	708.257707	155	
124.6	711.641723	159	
124.7	715.044087	169	
124.8	718.464902	158	
124.9	721.904273	148	
125.0	725.362303	167	
125.1	728.839099	167	
125.2	732.334765	176	
125.3	735.849407	179	
125.4	739.383134	194	
125.5	742.936052	184	
125.6	746.508269	231	
125.7	750.099894	227	
125.8	753.711037	199	
125.9	757.341808	218	
126.0	760.992316	243	
126.1	764.662675	255	
126.2	768.352995	248	
126.3	772.063388	277	
126.4	775.793969	329	
126.5	779.544852	316	
126.6	783.316149	365	
126.7	787.107978	364	
126.8	790.920453	368	
126.9	794.753692	400	
127.0	798.607811	480	
127.1	802.482928	535	
127.2	806.379162	602	
127.3	810.296631	648	
127.4	814.235457	676	
127.5	818.195760	816	
127.6	822.177660	876	
127.7	826.181280	954	
127.8	830.206743	1106	
127.9	834.254171	1273	
128.0	838.323690	1381	
128.1	842.415424	1564	
128.2	846.529499	1843	
128.3	850.666040	1975	
128.4	854.825175	2334	
128.5	859.007032	2675	
128.6	863.211739	2902	
128.7	867.439426	3317	
128.8	871.690222	3855	
128.9	875.964258	4290	
129.0	880.261666	4628	
129.1	884.582578	4787	
129.2	888.927127	4912	
129.3	893.295446	4815	
129.4	897.687672	4858	
129.5	902.103937	4731	
129.6	906.544380	4740	
129.7	911.009136	4523	
129.8	915.498344	4481	
129.9	920.012143	4372	
130.0	924.550670	4145	
130.1	929.114067	4272	
130.2	933.702474	4164	
130.3	938.316034	4138	
130.4	942.954888	4167	
130.5	947.619180	4220	
130.6	952.309055	4468	
130.7	957.024657	4579	
130.8	961.766132	4433	
130.9	966.533627	4432	
131.0	971.327290	4458	
131.1	976.147269	4413	
131.2	980.993714	4158	
131.3	985.866774	3908	
131.4	990.766600	3907	
131.5	995.693345	3553	
131.6	1000.647161	3411	
131.7	1005.628202	3348	
131.8	1010.636623	3191	
131.9	1015.672578	3189	
132.0	1020.736224	2978	
132.1	1025.827719	2856	
132.2	1030.947220	2835	
132.3	1036.094887	2736	
132.4	1041.270880	2732	
132.5	1046.475359	2624	
132.6	1051.708486	2588	
132.7	1056.970424	2440	
132.8	1062.261337	2480	
132.9	1067.581389	2527	
133.0	1072.930747	2486	
133.1	1078.309575	2535	
133.2	1083.718043	2595	
133.3	1089.156318	2491	
133.4	1094.624570	2496	
133.5	1100.122969	2440	
133.6	1105.651686	2449	
133.7	1111.210895	2476	
133.8	1116.800767	2464	
133.9	1122.421479	2457	
134.0	1128.073204	2423	
134.1	1133.756120	2352	
134.2	1139.470403	2368	
134.3	1145.216232	2278	
134.4	1150.993787	2242	
134.5	1156.803247	2204	
134.6	1162.644795	2230	
134.7	1168.518613	2066	
134.8	1174.424884	2050	
134.9	1180.363794	1943	
135.0	1186.335527	0	
Comment	
